Wavelength [nm]	Absorbance/Fluorescence	Baseline counts	Sample counts
499,982697	0,168699	233,000000	158,000000
500,183685	0,172411	235,000000	158,000000
500,384674	0,171572	239,000000	161,000000
500,585663	0,167173	241,000000	164,000000
500,786652	0,169058	245,000000	166,000000
500,987640	0,169142	248,000000	168,000000
501,188629	0,169225	251,000000	170,000000
501,389618	0,171012	255,000000	172,000000
501,590607	0,169384	257,000000	174,000000
501,791595	0,168667	261,000000	177,000000
501,992584	0,170393	265,000000	179,000000
502,193573	0,170456	268,000000	181,000000
502,394562	0,168151	271,000000	184,000000
502,595551	0,165909	274,000000	187,000000
502,796539	0,167583	278,000000	189,000000
502,997528	0,169216	282,000000	191,000000
503,198517	0,166331	286,000000	195,000000
503,399506	0,168642	289,000000	196,000000
503,600494	0,170202	293,000000	198,000000
503,801483	0,169560	297,000000	201,000000
504,002472	0,168936	301,000000	204,000000
504,203461	0,169006	304,000000	206,000000
504,404449	0,170487	308,000000	208,000000
504,605438	0,172614	311,000000	209,000000
504,806427	0,170594	314,000000	212,000000
505,007416	0,171352	319,000000	215,000000
505,208405	0,172743	323,000000	217,000000
505,409393	0,170795	326,000000	220,000000
505,610382	0,172161	330,000000	222,000000
505,811371	0,170262	333,000000	225,000000
506,012360	0,171604	337,000000	227,000000
506,213348	0,172919	341,000000	229,000000
506,414337	0,171070	344,000000	232,000000
506,615326	0,172363	348,000000	234,000000
506,816315	0,174239	351,000000	235,000000
507,017303	0,175480	355,000000	237,000000
507,218292	0,178517	359,000000	238,000000
507,419281	0,181509	363,000000	239,000000
507,620270	0,182649	367,000000	241,000000
507,821259	0,185559	371,000000	242,000000
508,022247	0,190216	375,000000	242,000000
508,223236	0,190102	378,000000	244,000000
508,424225	0,192897	382,000000	245,000000
508,625214	0,190388	386,000000	249,000000
508,826202	0,193750	389,000000	249,000000
509,027191	0,191272	393,000000	253,000000
509,228180	0,192250	397,000000	255,000000
509,429169	0,191040	399,000000	257,000000
509,630157	0,191408	404,000000	260,000000
509,831146	0,191293	407,000000	262,000000
510,032135	0,193293	412,000000	264,000000
510,233124	0,193754	414,000000	265,000000
510,434113	0,193625	417,000000	267,000000
510,635101	0,194530	421,000000	269,000000
510,836090	0,195420	425,000000	271,000000
511,037079	0,198474	428,000000	271,000000
511,238068	0,196727	431,000000	274,000000
511,439056	0,198157	434,000000	275,000000
511,640045	0,198994	438,000000	277,000000
511,841034	0,200394	441,000000	278,000000
512,041992	0,198677	444,000000	281,000000
512,242981	0,197960	448,000000	284,000000
512,443970	0,199332	451,000000	285,000000
512,644958	0,200690	454,000000	286,000000
512,845947	0,201473	458,000000	288,000000
513,046936	0,204308	461,000000	288,000000
513,247925	0,205620	464,000000	289,000000
513,448914	0,205424	467,000000	291,000000
513,649902	0,205230	470,000000	293,000000
513,850891	0,208911	474,000000	293,000000
514,051880	0,207785	476,000000	295,000000
514,252869	0,210514	479,000000	295,000000
514,453857	0,211191	483,000000	297,000000
514,654846	0,213880	486,000000	297,000000
514,855835	0,213638	489,000000	299,000000
515,056824	0,213960	491,000000	300,000000
515,257812	0,213720	494,000000	302,000000
515,458801	0,211182	496,000000	305,000000
515,659790	0,212379	499,000000	306,000000
515,860779	0,210745	502,000000	309,000000
516,061768	0,211069	504,000000	310,000000
516,262756	0,210853	507,000000	312,000000
516,463745	0,212026	510,000000	313,000000
516,664734	0,211807	513,000000	315,000000
516,865723	0,211590	516,000000	317,000000
517,066711	0,211903	518,000000	318,000000
517,267700	0,213880	522,000000	319,000000
517,468689	0,214181	524,000000	320,000000
517,669678	0,214481	526,000000	321,000000
517,870667	0,216951	529,000000	321,000000
518,071655	0,219407	532,000000	321,000000
518,272644	0,221036	534,000000	321,000000
518,473633	0,222660	536,000000	321,000000
518,674622	0,226992	538,000000	319,000000
518,875610	0,230770	541,000000	318,000000
519,076599	0,232373	543,000000	318,000000
519,277588	0,236709	545,000000	316,000000
519,478577	0,239677	547,000000	315,000000
519,679565	0,244028	549,000000	313,000000
519,880554	0,244222	551,000000	314,000000
520,081543	0,243823	554,000000	316,000000
520,282532	0,244016	556,000000	317,000000
520,483521	0,244207	558,000000	318,000000
520,684509	0,241683	560,000000	321,000000
520,885498	0,240534	562,000000	323,000000
521,086487	0,240734	564,000000	324,000000
521,287476	0,240933	566,000000	325,000000
521,488464	0,241700	567,000000	325,000000
521,689453	0,240565	569,000000	327,000000
521,890442	0,246091	571,000000	324,000000
522,091431	0,246271	573,000000	325,000000
522,292419	0,244364	574,000000	327,000000
522,493408	0,245875	576,000000	327,000000
522,694397	0,247380	578,000000	327,000000
522,895386	0,246232	580,000000	329,000000
523,096375	0,246409	582,000000	330,000000
523,297363	0,246585	584,000000	331,000000
523,498352	0,243409	585,000000	334,000000
523,699341	0,240268	586,000000	337,000000
523,900330	0,237898	588,000000	340,000000
524,101318	0,236089	589,000000	342,000000
524,302307	0,231776	590,000000	346,000000
524,503296	0,231258	591,000000	347,000000
524,704285	0,230961	594,000000	349,000000
524,905273	0,231692	595,000000	349,000000
525,106262	0,229939	596,000000	351,000000
525,307251	0,230667	597,000000	351,000000
525,508240	0,234601	599,000000	349,000000
525,709229	0,236572	600,000000	348,000000
525,910217	0,239798	601,000000	346,000000
526,111206	0,239267	602,000000	347,000000
526,312195	0,241961	604,000000	346,000000
526,513184	0,243936	605,000000	345,000000
526,714172	0,244654	606,000000	345,000000
526,915161	0,244113	607,000000	346,000000
527,116150	0,244827	608,000000	346,000000
527,317139	0,244827	608,000000	346,000000
527,518127	0,245000	610,000000	347,000000
527,719116	0,246965	611,000000	346,000000
527,920105	0,248932	612,000000	345,000000
528,121094	0,250902	613,000000	344,000000
528,322083	0,251610	614,000000	344,000000
528,523071	0,252874	614,000000	343,000000
528,724060	0,251056	615,000000	345,000000
528,925049	0,250505	616,000000	346,000000
529,126038	0,248706	617,000000	348,000000
529,327026	0,245681	618,000000	351,000000
529,528015	0,241985	618,000000	354,000000
529,729004	0,237808	619,000000	358,000000
529,929993	0,233683	620,000000	362,000000
530,130981	0,230799	621,000000	365,000000
530,331970	0,226065	621,000000	369,000000
530,532959	0,221383	621,000000	373,000000
530,733948	0,217449	622,000000	377,000000
530,934937	0,210592	622,000000	383,000000
531,135925	0,206777	623,000000	387,000000
531,336914	0,201202	623,000000	392,000000
531,537903	0,197891	623,000000	395,000000
531,738892	0,194212	624,000000	399,000000
531,939880	0,189880	624,000000	403,000000
532,140869	0,188425	625,000000	405,000000
532,341858	0,185590	624,000000	407,000000
532,542847	0,182038	625,000000	411,000000
532,743835	0,182038	625,000000	411,000000
532,944824	0,181677	626,000000	412,000000
533,145813	0,178526	626,000000	415,000000
533,346802	0,177481	626,000000	416,000000
533,547791	0,179219	627,000000	415,000000
533,748779	0,180267	627,000000	414,000000
533,949768	0,181317	627,000000	413,000000
534,150757	0,181317	627,000000	413,000000
534,351746	0,183426	627,000000	411,000000
534,552734	0,183426	627,000000	411,000000
534,753723	0,185544	627,000000	409,000000
534,954712	0,187673	627,000000	407,000000
535,155701	0,189813	627,000000	405,000000
535,356689	0,190886	627,000000	404,000000
535,557678	0,190886	627,000000	404,000000
535,758667	0,194123	627,000000	401,000000
535,959656	0,193041	627,000000	402,000000
536,160645	0,192655	628,000000	403,000000
536,361633	0,188742	627,000000	406,000000
536,562622	0,186607	627,000000	408,000000
536,763611	0,184484	627,000000	410,000000
536,964600	0,182370	627,000000	412,000000
537,165588	0,178174	627,000000	416,000000
537,366577	0,177131	627,000000	417,000000
537,567566	0,175054	627,000000	419,000000
537,768494	0,172985	627,000000	421,000000
537,969482	0,174018	627,000000	420,000000
538,170471	0,170234	626,000000	423,000000
538,371460	0,169208	626,000000	424,000000
538,572449	0,166146	626,000000	427,000000
538,773437	0,166146	626,000000	427,000000
538,974426	0,163106	626,000000	430,000000
539,175415	0,162097	626,000000	431,000000
539,376404	0,159392	625,000000	433,000000
539,577393	0,157391	625,000000	435,000000
539,778381	0,154406	625,000000	438,000000
539,979370	0,152720	624,000000	439,000000
540,180359	0,150049	623,000000	441,000000
540,381348	0,150746	624,000000	441,000000
540,582336	0,150049	623,000000	441,000000
540,783325	0,151035	623,000000	440,000000
540,984314	0,148368	622,000000	442,000000
541,185303	0,150049	623,000000	441,000000
541,386292	0,149352	622,000000	441,000000
541,587280	0,149639	621,000000	440,000000
541,788269	0,151617	621,000000	438,000000
541,989258	0,150918	620,000000	438,000000
542,190247	0,151910	620,000000	437,000000
542,391235	0,152905	620,000000	436,000000
542,592224	0,155203	619,000000	433,000000
542,793213	0,156207	619,000000	432,000000
542,994202	0,155505	618,000000	432,000000
543,195190	0,156817	617,000000	430,000000
543,396179	0,158841	617,000000	428,000000
543,597168	0,161896	617,000000	425,000000
543,798157	0,160171	616,000000	426,000000
543,999146	0,161509	615,000000	424,000000
544,200134	0,163563	615,000000	422,000000
544,401123	0,165626	615,000000	420,000000
544,602112	0,164211	613,000000	420,000000
544,803101	0,166284	613,000000	418,000000
545,004089	0,168367	613,000000	416,000000
545,205078	0,169751	612,000000	414,000000
545,406067	0,171854	612,000000	412,000000
545,607056	0,172199	611,000000	411,000000
545,808044	0,176447	611,000000	407,000000
546,009033	0,177162	609,000000	405,000000
546,210022	0,180759	608,000000	401,000000
546,411011	0,185113	608,000000	397,000000
546,612000	0,188407	608,000000	394,000000
546,812988	0,193239	607,000000	389,000000
547,013977	0,198141	606,000000	384,000000
547,214966	0,201972	605,000000	380,000000
547,415955	0,208884	605,000000	374,000000
547,616943	0,215189	604,000000	368,000000
547,817932	0,227154	604,000000	358,000000
548,018921	0,235528	602,000000	350,000000
548,219910	0,245570	602,000000	342,000000
548,420898	0,255128	601,000000	334,000000
548,621887	0,262277	600,000000	328,000000
548,822876	0,272277	599,000000	320,000000
549,023865	0,279772	598,000000	314,000000
549,224854	0,283214	597,000000	311,000000
549,425842	0,286696	596,000000	308,000000
549,626831	0,286696	596,000000	308,000000
549,827820	0,287379	595,000000	307,000000
550,028809	0,282425	594,000000	310,000000
550,229797	0,280294	593,000000	311,000000
550,430786	0,274011	592,000000	315,000000
550,631775	0,267797	591,000000	319,000000
550,832764	0,258370	591,000000	326,000000
551,033752	0,249714	590,000000	332,000000
551,234741	0,241199	589,000000	338,000000
551,435730	0,233557	589,000000	344,000000
551,636719	0,222835	588,000000	352,000000
551,837708	0,213544	587,000000	359,000000
552,038696	0,206796	586,000000	364,000000
552,239685	0,200129	585,000000	369,000000
552,440674	0,194704	584,000000	373,000000
552,641663	0,194704	584,000000	373,000000
552,842651	0,196295	583,000000	371,000000
553,043640	0,197467	583,000000	370,000000
553,244629	0,203075	581,000000	364,000000
553,445618	0,208334	580,000000	359,000000
553,646606	0,216885	580,000000	352,000000
553,847595	0,224109	578,000000	345,000000
554,048584	0,233546	577,000000	337,000000
554,249573	0,242662	577,000000	330,000000
554,450562	0,254518	575,000000	320,000000
554,651550	0,264123	575,000000	313,000000
554,852539	0,273190	574,000000	306,000000
555,053528	0,283938	573,000000	298,000000
555,254517	0,292013	572,000000	292,000000
555,455505	0,300270	571,000000	286,000000
555,656494	0,311830	570,000000	278,000000
555,857483	0,322906	570,000000	271,000000
556,058472	0,328601	569,000000	267,000000
556,259460	0,336047	568,000000	262,000000
556,460449	0,340283	567,000000	259,000000
556,661438	0,344576	566,000000	256,000000
556,862427	0,343039	564,000000	256,000000
557,063416	0,342268	563,000000	256,000000
557,264404	0,335535	563,000000	260,000000
557,465393	0,325717	561,000000	265,000000
557,666382	0,315219	560,000000	271,000000
557,867371	0,301030	560,000000	280,000000
558,068359	0,281251	558,000000	292,000000
558,269348	0,264413	557,000000	303,000000
558,470337	0,250311	557,000000	313,000000
558,671326	0,234530	556,000000	324,000000
558,872314	0,217170	554,000000	336,000000
559,073303	0,204434	554,000000	346,000000
559,274292	0,195396	552,000000	352,000000
559,475281	0,186057	551,000000	359,000000
559,676270	0,181654	550,000000	362,000000
559,877258	0,177279	549,000000	365,000000
560,078247	0,172933	548,000000	368,000000
560,279236	0,174506	547,000000	366,000000
560,480225	0,173712	546,000000	366,000000
560,681213	0,177286	546,000000	363,000000
560,882202	0,180094	545,000000	360,000000
561,083191	0,182931	544,000000	357,000000
561,284180	0,184571	543,000000	355,000000
561,485168	0,186225	542,000000	353,000000
561,686157	0,189129	541,000000	350,000000
561,887146	0,191259	539,000000	347,000000
562,088135	0,192513	539,000000	346,000000
562,289124	0,191706	538,000000	346,000000
562,490112	0,192155	537,000000	345,000000
562,691101	0,186775	535,000000	348,000000
562,892090	0,184286	535,000000	350,000000
563,093079	0,179767	534,000000	353,000000
563,294067	0,172029	532,000000	358,000000
563,495056	0,166386	531,000000	362,000000
563,696045	0,158068	531,000000	369,000000
563,897034	0,151747	529,000000	373,000000
564,098022	0,143995	528,000000	379,000000
564,299011	0,137479	527,000000	384,000000
564,500000	0,129921	526,000000	390,000000
564,700989	0,122464	525,000000	396,000000
564,901978	0,114026	524,000000	403,000000
565,102966	0,107010	522,000000	408,000000
565,303955	0,102773	522,000000	412,000000
565,504944	0,097744	521,000000	416,000000
565,705933	0,091918	519,000000	420,000000
565,906921	0,087989	518,000000	423,000000
566,107910	0,086125	517,000000	424,000000
566,308899	0,081379	515,000000	427,000000
566,509888	0,081379	515,000000	427,000000
566,710876	0,080535	514,000000	427,000000
566,911865	0,076813	512,000000	429,000000
567,112854	0,074952	511,000000	430,000000
567,313843	0,075274	509,000000	428,000000
567,514832	0,074260	509,000000	429,000000
567,715820	0,073406	508,000000	429,000000
567,916809	0,072551	507,000000	429,000000
568,117798	0,072707	506,000000	428,000000
568,318787	0,072003	504,000000	427,000000
568,519775	0,071140	503,000000	427,000000
568,720764	0,070276	502,000000	427,000000
568,921753	0,070428	501,000000	426,000000
569,122742	0,070581	500,000000	425,000000
569,323730	0,068840	498,000000	425,000000
569,524719	0,068991	497,000000	424,000000
569,725708	0,068116	496,000000	424,000000
569,926636	0,067387	494,000000	423,000000
570,127625	0,067387	494,000000	423,000000
570,328613	0,066507	493,000000	423,000000
570,529602	0,067683	492,000000	421,000000
570,730591	0,064884	490,000000	422,000000
570,931580	0,069020	490,000000	418,000000
571,132568	0,067095	489,000000	419,000000
571,333557	0,066206	488,000000	419,000000
571,534546	0,065460	486,000000	418,000000
571,735535	0,065460	486,000000	418,000000
571,936523	0,065606	485,000000	417,000000
572,137512	0,066797	484,000000	415,000000
572,338501	0,063954	482,000000	416,000000
572,539490	0,064097	481,000000	415,000000
572,740479	0,063193	480,000000	415,000000
572,941467	0,063335	479,000000	414,000000
573,142456	0,062568	477,000000	413,000000
573,343445	0,061657	476,000000	413,000000
573,544434	0,061657	476,000000	413,000000
573,745422	0,060881	474,000000	412,000000
573,946411	0,061019	473,000000	411,000000
574,147400	0,061158	472,000000	410,000000
574,348389	0,060375	470,000000	409,000000
574,549377	0,059450	469,000000	409,000000
574,750366	0,059450	469,000000	409,000000
574,951355	0,058657	467,000000	408,000000
575,152344	0,058792	466,000000	407,000000
575,353333	0,059998	465,000000	405,000000
575,554321	0,059063	464,000000	405,000000
575,755310	0,060276	463,000000	403,000000
575,956299	0,060416	462,000000	402,000000
576,157288	0,059475	461,000000	402,000000
576,358276	0,057587	459,000000	402,000000
576,559265	0,057721	458,000000	401,000000
576,760254	0,060033	457,000000	398,000000
576,961243	0,057992	456,000000	399,000000
577,162231	0,057039	455,000000	399,000000
577,363220	0,057308	453,000000	397,000000
577,564209	0,058403	453,000000	396,000000
577,765198	0,056481	451,000000	396,000000
577,966187	0,055649	449,000000	395,000000
578,167175	0,056750	449,000000	394,000000
578,368164	0,056885	448,000000	393,000000
578,569153	0,058270	446,000000	390,000000
578,770142	0,056183	445,000000	391,000000
578,971130	0,056318	444,000000	390,000000
579,172119	0,056454	443,000000	389,000000
579,373108	0,057711	442,000000	387,000000
579,574097	0,056865	440,000000	386,000000
579,775085	0,055877	439,000000	386,000000
579,976074	0,056013	438,000000	385,000000
580,177063	0,055021	437,000000	385,000000
580,378052	0,053029	435,000000	385,000000
580,579041	0,055426	434,000000	382,000000
580,780029	0,055563	433,000000	381,000000
580,981018	0,053420	432,000000	382,000000
581,182007	0,053552	431,000000	381,000000
581,382996	0,054965	429,000000	378,000000
581,583984	0,052805	428,000000	379,000000
581,784973	0,054087	427,000000	377,000000
581,985962	0,055378	426,000000	375,000000
582,186951	0,054358	425,000000	375,000000
582,387939	0,056680	425,000000	373,000000
582,588928	0,054632	423,000000	373,000000
582,789917	0,053604	422,000000	373,000000
582,990906	0,053875	420,000000	371,000000
583,191895	0,056223	420,000000	369,000000
583,392883	0,054150	418,000000	369,000000
583,593872	0,053246	416,000000	368,000000
583,794861	0,053382	415,000000	367,000000
583,995850	0,053519	414,000000	366,000000
584,196838	0,054849	413,000000	364,000000
584,397827	0,056189	412,000000	362,000000
584,598816	0,056335	411,000000	361,000000
584,799805	0,055421	409,000000	360,000000
585,000793	0,055421	409,000000	360,000000
585,201782	0,055711	407,000000	358,000000
585,402771	0,057076	406,000000	356,000000
585,603760	0,054931	404,000000	356,000000
585,804749	0,054931	404,000000	356,000000
586,005737	0,055370	401,000000	353,000000
586,206726	0,051832	400,000000	355,000000
586,407715	0,054430	399,000000	352,000000
586,608704	0,054576	398,000000	351,000000
586,809692	0,055965	397,000000	349,000000
587,010681	0,054870	396,000000	349,000000
587,211670	0,055018	395,000000	348,000000
587,412659	0,055316	393,000000	346,000000
587,613647	0,054210	392,000000	346,000000
587,814636	0,053246	390,000000	345,000000
588,015625	0,053391	389,000000	344,000000
588,216614	0,054806	388,000000	342,000000
588,417603	0,053685	387,000000	342,000000
588,618591	0,055108	386,000000	340,000000
588,819580	0,056544	385,000000	338,000000
589,020569	0,056859	383,000000	336,000000
589,221558	0,057019	382,000000	335,000000
589,422546	0,057179	381,000000	334,000000
589,623535	0,056037	380,000000	334,000000
589,824524	0,054893	379,000000	334,000000
590,025513	0,053897	377,000000	333,000000
590,226501	0,055360	376,000000	331,000000
590,427490	0,054203	375,000000	331,000000
590,628479	0,055676	374,000000	329,000000
590,829468	0,055835	373,000000	328,000000
591,030457	0,055995	372,000000	327,000000
591,231445	0,057491	371,000000	325,000000
591,432434	0,054984	370,000000	326,000000
591,633423	0,053809	369,000000	326,000000
591,834412	0,055464	367,000000	323,000000
592,035400	0,055625	366,000000	322,000000
592,236389	0,054437	365,000000	322,000000
592,437378	0,055951	364,000000	320,000000
592,638367	0,056116	363,000000	319,000000
592,839355	0,055080	361,000000	318,000000
593,040344	0,055243	360,000000	317,000000
593,241333	0,054196	358,000000	316,000000
593,442322	0,054358	357,000000	315,000000
593,643311	0,053299	355,000000	314,000000
593,844299	0,052074	354,000000	314,000000
594,045288	0,055014	353,000000	311,000000
594,246277	0,052388	352,000000	312,000000
594,447266	0,052547	351,000000	311,000000
594,648254	0,051464	349,000000	310,000000
594,849243	0,053029	348,000000	308,000000
595,050232	0,050371	347,000000	309,000000
595,251221	0,051938	346,000000	307,000000
595,452209	0,050681	345,000000	307,000000
595,653198	0,049573	343,000000	306,000000
595,854187	0,051153	342,000000	304,000000
596,055176	0,048455	341,000000	305,000000
596,256165	0,050036	340,000000	303,000000
596,457153	0,047474	338,000000	303,000000
596,658142	0,049063	337,000000	301,000000
596,859131	0,050668	336,000000	299,000000
597,060120	0,047924	335,000000	300,000000
597,261108	0,048075	334,000000	299,000000
597,462097	0,049688	333,000000	297,000000
597,663086	0,051316	332,000000	295,000000
597,864075	0,047222	330,000000	296,000000
598,065063	0,047374	329,000000	295,000000
598,266052	0,047527	328,000000	294,000000
598,467041	0,049165	327,000000	292,000000
598,668030	0,047835	326,000000	292,000000
598,869019	0,047990	325,000000	291,000000
599,070007	0,046652	324,000000	291,000000
599,270996	0,046958	322,000000	289,000000
599,471985	0,047113	321,000000	288,000000
599,672974	0,047268	320,000000	287,000000
599,873962	0,046061	318,000000	286,000000
600,074951	0,046214	317,000000	285,000000
